#Wavelength_S0_S1_S2
300 0.040000 0.020000 0.000000
301 0.636000 0.468000 0.200000
302 1.232000 0.916000 0.400000
303 1.828000 1.364000 0.600000
304 2.424000 1.812000 0.800000
305 3.020000 2.260000 1.000000
306 3.616000 2.708000 1.200000
307 4.212000 3.156000 1.400000
308 4.808000 3.604000 1.600000
309 5.404000 4.052000 1.800000
310 6.000000 4.500000 2.000000
311 8.360000 6.290000 2.200000
312 10.720000 8.080000 2.400000
313 13.080000 9.870000 2.600000
314 15.440000 11.660000 2.800000
315 17.800000 13.450000 3.000000
316 20.160000 15.240000 3.200000
317 22.520000 17.030000 3.400000
318 24.880000 18.820000 3.600000
319 27.240000 20.610000 3.800000
320 29.600000 22.400000 4.000000
321 32.170000 24.360000 4.450000
322 34.740000 26.320000 4.900000
323 37.310000 28.280000 5.350000
324 39.880000 30.240000 5.800000
325 42.450000 32.200000 6.250000
326 45.020000 34.160000 6.700000
327 47.590000 36.120000 7.150000
328 50.160000 38.080000 7.600000
329 52.730000 40.040000 8.050000
330 55.300000 42.000000 8.500000
331 55.500000 41.860000 8.430000
332 55.700000 41.720000 8.360000
333 55.900000 41.580000 8.290000
334 56.100000 41.440000 8.220000
335 56.300000 41.300000 8.150000
336 56.500000 41.160000 8.080000
337 56.700000 41.020000 8.010000
338 56.900000 40.880000 7.940000
339 57.100000 40.740000 7.870000
340 57.300000 40.600000 7.800000
341 57.750000 40.700000 7.690000
342 58.200000 40.800000 7.580000
343 58.650000 40.900000 7.470000
344 59.100000 41.000000 7.360000
345 59.550000 41.100000 7.250000
346 60.000000 41.200000 7.140000
347 60.450000 41.300000 7.030000
348 60.900000 41.400000 6.920000
349 61.350000 41.500000 6.810000
350 61.800000 41.600000 6.700000
351 61.770000 41.240000 6.560000
352 61.740000 40.880000 6.420000
353 61.710000 40.520000 6.280000
354 61.680000 40.160000 6.140000
355 61.650000 39.800000 6.000000
356 61.620000 39.440000 5.860000
357 61.590000 39.080000 5.720000
358 61.560000 38.720000 5.580000
359 61.530000 38.360000 5.440000
360 61.500000 38.000000 5.300000
361 62.230000 38.440000 5.380000
362 62.960000 38.880000 5.460000
363 63.690000 39.320000 5.540000
364 64.420000 39.760000 5.620000
365 65.150000 40.200000 5.700000
366 65.880000 40.640000 5.780000
367 66.610000 41.080000 5.860000
368 67.340000 41.520000 5.940000
369 68.070000 41.960000 6.020000
370 68.800000 42.400000 6.100000
371 68.260000 42.010000 5.790000
372 67.720000 41.620000 5.480000
373 67.180000 41.230000 5.170000
374 66.640000 40.840000 4.860000
375 66.100000 40.450000 4.550000
376 65.560000 40.060000 4.240000
377 65.020000 39.670000 3.930000
378 64.480000 39.280000 3.620000
379 63.940000 38.890000 3.310000
380 63.400000 38.500000 3.000000
381 63.640000 38.150000 2.820000
382 63.880000 37.800000 2.640000
383 64.120000 37.450000 2.460000
384 64.360000 37.100000 2.280000
385 64.600000 36.750000 2.100000
386 64.840000 36.400000 1.920000
387 65.080000 36.050000 1.740000
388 65.320000 35.700000 1.560000
389 65.560000 35.350000 1.380000
390 65.800000 35.000000 1.200000
391 68.700000 35.840000 0.970000
392 71.600000 36.680000 0.740000
393 74.500000 37.520000 0.510000
394 77.400000 38.360000 0.280000
395 80.300000 39.200000 0.050000
396 83.200000 40.040000 -0.180000
397 86.100000 40.880000 -0.410000
398 89.000000 41.720000 -0.640000
399 91.900000 42.560000 -0.870000
400 94.800000 43.400000 -1.100000
401 95.800000 43.690000 -1.040000
402 96.800000 43.980000 -0.980000
403 97.800000 44.270000 -0.920000
404 98.800000 44.560000 -0.860000
405 99.800000 44.850000 -0.800000
406 100.800000 45.140000 -0.740000
407 101.800000 45.430000 -0.680000
408 102.800000 45.720000 -0.620000
409 103.800000 46.010000 -0.560000
410 104.800000 46.300000 -0.500000
411 104.910000 46.060000 -0.520000
412 105.020000 45.820000 -0.540000
413 105.130000 45.580000 -0.560000
414 105.240000 45.340000 -0.580000
415 105.350000 45.100000 -0.600000
416 105.460000 44.860000 -0.620000
417 105.570000 44.620000 -0.640000
418 105.680000 44.380000 -0.660000
419 105.790000 44.140000 -0.680000
420 105.900000 43.900000 -0.700000
421 104.990000 43.220000 -0.750000
422 104.080000 42.540000 -0.800000
423 103.170000 41.860000 -0.850000
424 102.260000 41.180000 -0.900000
425 101.350000 40.500000 -0.950000
426 100.440000 39.820000 -1.000000
427 99.530000 39.140000 -1.050000
428 98.620000 38.460000 -1.100000
429 97.710000 37.780000 -1.150000
430 96.800000 37.100000 -1.200000
431 98.510000 37.060000 -1.340000
432 100.220000 37.020000 -1.480000
433 101.930000 36.980000 -1.620000
434 103.640000 36.940000 -1.760000
435 105.350000 36.900000 -1.900000
436 107.060000 36.860000 -2.040000
437 108.770000 36.820000 -2.180000
438 110.480000 36.780000 -2.320000
439 112.190000 36.740000 -2.460000
440 113.900000 36.700000 -2.600000
441 115.070000 36.620000 -2.630000
442 116.240000 36.540000 -2.660000
443 117.410000 36.460000 -2.690000
444 118.580000 36.380000 -2.720000
445 119.750000 36.300000 -2.750000
446 120.920000 36.220000 -2.780000
447 122.090000 36.140000 -2.810000
448 123.260000 36.060000 -2.840000
449 124.430000 35.980000 -2.870000
450 125.600000 35.900000 -2.900000
451 125.590000 35.570000 -2.890000
452 125.580000 35.240000 -2.880000
453 125.570000 34.910000 -2.870000
454 125.560000 34.580000 -2.860000
455 125.550000 34.250000 -2.850000
456 125.540000 33.920000 -2.840000
457 125.530000 33.590000 -2.830000
458 125.520000 33.260000 -2.820000
459 125.510000 32.930000 -2.810000
460 125.500000 32.600000 -2.800000
461 125.080000 32.130000 -2.780000
462 124.660000 31.660000 -2.760000
463 124.240000 31.190000 -2.740000
464 123.820000 30.720000 -2.720000
465 123.400000 30.250000 -2.700000
466 122.980000 29.780000 -2.680000
467 122.560000 29.310000 -2.660000
468 122.140000 28.840000 -2.640000
469 121.720000 28.370000 -2.620000
470 121.300000 27.900000 -2.600000
471 121.300000 27.540000 -2.600000
472 121.300000 27.180000 -2.600000
473 121.300000 26.820000 -2.600000
474 121.300000 26.460000 -2.600000
475 121.300000 26.100000 -2.600000
476 121.300000 25.740000 -2.600000
477 121.300000 25.380000 -2.600000
478 121.300000 25.020000 -2.600000
479 121.300000 24.660000 -2.600000
480 121.300000 24.300000 -2.600000
481 120.520000 23.880000 -2.520000
482 119.740000 23.460000 -2.440000
483 118.960000 23.040000 -2.360000
484 118.180000 22.620000 -2.280000
485 117.400000 22.200000 -2.200000
486 116.620000 21.780000 -2.120000
487 115.840000 21.360000 -2.040000
488 115.060000 20.940000 -1.960000
489 114.280000 20.520000 -1.880000
490 113.500000 20.100000 -1.800000
491 113.460000 19.710000 -1.770000
492 113.420000 19.320000 -1.740000
493 113.380000 18.930000 -1.710000
494 113.340000 18.540000 -1.680000
495 113.300000 18.150000 -1.650000
496 113.260000 17.760000 -1.620000
497 113.220000 17.370000 -1.590000
498 113.180000 16.980000 -1.560000
499 113.140000 16.590000 -1.530000
500 113.100000 16.200000 -1.500000
501 112.870000 15.900000 -1.480000
502 112.640000 15.600000 -1.460000
503 112.410000 15.300000 -1.440000
504 112.180000 15.000000 -1.420000
505 111.950000 14.700000 -1.400000
506 111.720000 14.400000 -1.380000
507 111.490000 14.100000 -1.360000
508 111.260000 13.800000 -1.340000
509 111.030000 13.500000 -1.320000
510 110.800000 13.200000 -1.300000
511 110.370000 12.740000 -1.290000
512 109.940000 12.280000 -1.280000
513 109.510000 11.820000 -1.270000
514 109.080000 11.360000 -1.260000
515 108.650000 10.900000 -1.250000
516 108.220000 10.440000 -1.240000
517 107.790000 9.980000 -1.230000
518 107.360000 9.520000 -1.220000
519 106.930000 9.060000 -1.210000
520 106.500000 8.600000 -1.200000
521 106.730000 8.350000 -1.180000
522 106.960000 8.100000 -1.160000
523 107.190000 7.850000 -1.140000
524 107.420000 7.600000 -1.120000
525 107.650000 7.350000 -1.100000
526 107.880000 7.100000 -1.080000
527 108.110000 6.850000 -1.060000
528 108.340000 6.600000 -1.040000
529 108.570000 6.350000 -1.020000
530 108.800000 6.100000 -1.000000
531 108.450000 5.910000 -0.950000
532 108.100000 5.720000 -0.900000
533 107.750000 5.530000 -0.850000
534 107.400000 5.340000 -0.800000
535 107.050000 5.150000 -0.750000
536 106.700000 4.960000 -0.700000
537 106.350000 4.770000 -0.650000
538 106.000000 4.580000 -0.600000
539 105.650000 4.390000 -0.550000
540 105.300000 4.200000 -0.500000
541 105.210000 3.970000 -0.480000
542 105.120000 3.740000 -0.460000
543 105.030000 3.510000 -0.440000
544 104.940000 3.280000 -0.420000
545 104.850000 3.050000 -0.400000
546 104.760000 2.820000 -0.380000
547 104.670000 2.590000 -0.360000
548 104.580000 2.360000 -0.340000
549 104.490000 2.130000 -0.320000
550 104.400000 1.900000 -0.300000
551 103.960000 1.710000 -0.270000
552 103.520000 1.520000 -0.240000
553 103.080000 1.330000 -0.210000
554 102.640000 1.140000 -0.180000
555 102.200000 0.950000 -0.150000
556 101.760000 0.760000 -0.120000
557 101.320000 0.570000 -0.090000
558 100.880000 0.380000 -0.060000
559 100.440000 0.190000 -0.030000
560 100.000000 0.000000 0.000000
561 99.600000 -0.160000 0.020000
562 99.200000 -0.320000 0.040000
563 98.800000 -0.480000 0.060000
564 98.400000 -0.640000 0.080000
565 98.000000 -0.800000 0.100000
566 97.600000 -0.960000 0.120000
567 97.200000 -1.120000 0.140000
568 96.800000 -1.280000 0.160000
569 96.400000 -1.440000 0.180000
570 96.000000 -1.600000 0.200000
571 95.910000 -1.790000 0.230000
572 95.820000 -1.980000 0.260000
573 95.730000 -2.170000 0.290000
574 95.640000 -2.360000 0.320000
575 95.550000 -2.550000 0.350000
576 95.460000 -2.740000 0.380000
577 95.370000 -2.930000 0.410000
578 95.280000 -3.120000 0.440000
579 95.190000 -3.310000 0.470000
580 95.100000 -3.500000 0.500000
581 94.500000 -3.500000 0.660000
582 93.900000 -3.500000 0.820000
583 93.300000 -3.500000 0.980000
584 92.700000 -3.500000 1.140000
585 92.100000 -3.500000 1.300000
586 91.500000 -3.500000 1.460000
587 90.900000 -3.500000 1.620000
588 90.300000 -3.500000 1.780000
589 89.700000 -3.500000 1.940000
590 89.100000 -3.500000 2.100000
591 89.240000 -3.730000 2.210000
592 89.380000 -3.960000 2.320000
593 89.520000 -4.190000 2.430000
594 89.660000 -4.420000 2.540000
595 89.800000 -4.650000 2.650000
596 89.940000 -4.880000 2.760000
597 90.080000 -5.110000 2.870000
598 90.220000 -5.340000 2.980000
599 90.360000 -5.570000 3.090000
600 90.500000 -5.800000 3.200000
601 90.480000 -5.940000 3.290000
602 90.460000 -6.080000 3.380000
603 90.440000 -6.220000 3.470000
604 90.420000 -6.360000 3.560000
605 90.400000 -6.500000 3.650000
606 90.380000 -6.640000 3.740000
607 90.360000 -6.780000 3.830000
608 90.340000 -6.920000 3.920000
609 90.320000 -7.060000 4.010000
610 90.300000 -7.200000 4.100000
611 90.110000 -7.340000 4.160000
612 89.920000 -7.480000 4.220000
613 89.730000 -7.620000 4.280000
614 89.540000 -7.760000 4.340000
615 89.350000 -7.900000 4.400000
616 89.160000 -8.040000 4.460000
617 88.970000 -8.180000 4.520000
618 88.780000 -8.320000 4.580000
619 88.590000 -8.460000 4.640000
620 88.400000 -8.600000 4.700000
621 87.960000 -8.690000 4.740000
622 87.520000 -8.780000 4.780000
623 87.080000 -8.870000 4.820000
624 86.640000 -8.960000 4.860000
625 86.200000 -9.050000 4.900000
626 85.760000 -9.140000 4.940000
627 85.320000 -9.230000 4.980000
628 84.880000 -9.320000 5.020000
629 84.440000 -9.410000 5.060000
630 84.000000 -9.500000 5.100000
631 84.110000 -9.640000 5.260000
632 84.220000 -9.780000 5.420000
633 84.330000 -9.920000 5.580000
634 84.440000 -10.060000 5.740000
635 84.550000 -10.200000 5.900000
636 84.660000 -10.340000 6.060000
637 84.770000 -10.480000 6.220000
638 84.880000 -10.620000 6.380000
639 84.990000 -10.760000 6.540000
640 85.100000 -10.900000 6.700000
641 84.780000 -10.880000 6.760000
642 84.460000 -10.860000 6.820000
643 84.140000 -10.840000 6.880000
644 83.820000 -10.820000 6.940000
645 83.500000 -10.800000 7.000000
646 83.180000 -10.780000 7.060000
647 82.860000 -10.760000 7.120000
648 82.540000 -10.740000 7.180000
649 82.220000 -10.720000 7.240000
650 81.900000 -10.700000 7.300000
651 81.970000 -10.830000 7.430000
652 82.040000 -10.960000 7.560000
653 82.110000 -11.090000 7.690000
654 82.180000 -11.220000 7.820000
655 82.250000 -11.350000 7.950000
656 82.320000 -11.480000 8.080000
657 82.390000 -11.610000 8.210000
658 82.460000 -11.740000 8.340000
659 82.530000 -11.870000 8.470000
660 82.600000 -12.000000 8.600000
661 82.830000 -12.200000 8.720000
662 83.060000 -12.400000 8.840000
663 83.290000 -12.600000 8.960000
664 83.520000 -12.800000 9.080000
665 83.750000 -13.000000 9.200000
666 83.980000 -13.200000 9.320000
667 84.210000 -13.400000 9.440000
668 84.440000 -13.600000 9.560000
669 84.670000 -13.800000 9.680000
670 84.900000 -14.000000 9.800000
671 84.540000 -13.960000 9.840000
672 84.180000 -13.920000 9.880000
673 83.820000 -13.880000 9.920000
674 83.460000 -13.840000 9.960000
675 83.100000 -13.800000 10.000000
676 82.740000 -13.760000 10.040000
677 82.380000 -13.720000 10.080000
678 82.020000 -13.680000 10.120000
679 81.660000 -13.640000 10.160000
680 81.300000 -13.600000 10.200000
681 80.360000 -13.440000 10.010000
682 79.420000 -13.280000 9.820000
683 78.480000 -13.120000 9.630000
684 77.540000 -12.960000 9.440000
685 76.600000 -12.800000 9.250000
686 75.660000 -12.640000 9.060000
687 74.720000 -12.480000 8.870000
688 73.780000 -12.320000 8.680000
689 72.840000 -12.160000 8.490000
690 71.900000 -12.000000 8.300000
691 72.140000 -12.130000 8.430000
692 72.380000 -12.260000 8.560000
693 72.620000 -12.390000 8.690000
694 72.860000 -12.520000 8.820000
695 73.100000 -12.650000 8.950000
696 73.340000 -12.780000 9.080000
697 73.580000 -12.910000 9.210000
698 73.820000 -13.040000 9.340000
699 74.060000 -13.170000 9.470000
700 74.300000 -13.300000 9.600000
701 74.510000 -13.260000 9.490000
702 74.720000 -13.220000 9.380000
703 74.930000 -13.180000 9.270000
704 75.140000 -13.140000 9.160000
705 75.350000 -13.100000 9.050000
706 75.560000 -13.060000 8.940000
707 75.770000 -13.020000 8.830000
708 75.980000 -12.980000 8.720000
709 76.190000 -12.940000 8.610000
710 76.400000 -12.900000 8.500000
711 75.090000 -12.670000 8.350000
712 73.780000 -12.440000 8.200000
713 72.470000 -12.210000 8.050000
714 71.160000 -11.980000 7.900000
715 69.850000 -11.750000 7.750000
716 68.540000 -11.520000 7.600000
717 67.230000 -11.290000 7.450000
718 65.920000 -11.060000 7.300000
719 64.610000 -10.830000 7.150000
720 63.300000 -10.600000 7.000000
721 64.140000 -10.700000 7.060000
722 64.980000 -10.800000 7.120000
723 65.820000 -10.900000 7.180000
724 66.660000 -11.000000 7.240000
725 67.500000 -11.100000 7.300000
726 68.340000 -11.200000 7.360000
727 69.180000 -11.300000 7.420000
728 70.020000 -11.400000 7.480000
729 70.860000 -11.500000 7.540000
730 71.700000 -11.600000 7.600000
731 72.230000 -11.660000 7.640000
732 72.760000 -11.720000 7.680000
733 73.290000 -11.780000 7.720000
734 73.820000 -11.840000 7.760000
735 74.350000 -11.900000 7.800000
736 74.880000 -11.960000 7.840000
737 75.410000 -12.020000 7.880000
738 75.940000 -12.080000 7.920000
739 76.470000 -12.140000 7.960000
740 77.000000 -12.200000 8.000000
741 75.820000 -12.000000 7.870000
742 74.640000 -11.800000 7.740000
743 73.460000 -11.600000 7.610000
744 72.280000 -11.400000 7.480000
745 71.100000 -11.200000 7.350000
746 69.920000 -11.000000 7.220000
747 68.740000 -10.800000 7.090000
748 67.560000 -10.600000 6.960000
749 66.380000 -10.400000 6.830000
750 65.200000 -10.200000 6.700000
751 63.450000 -9.960000 6.550000
752 61.700000 -9.720000 6.400000
753 59.950000 -9.480000 6.250000
754 58.200000 -9.240000 6.100000
755 56.450000 -9.000000 5.950000
756 54.700000 -8.760000 5.800000
757 52.950000 -8.520000 5.650000
758 51.200000 -8.280000 5.500000
759 49.450000 -8.040000 5.350000
760 47.700000 -7.800000 5.200000
761 49.790000 -8.140000 5.420000
762 51.880000 -8.480000 5.640000
763 53.970000 -8.820000 5.860000
764 56.060000 -9.160000 6.080000
765 58.150000 -9.500000 6.300000
766 60.240000 -9.840000 6.520000
767 62.330000 -10.180000 6.740000
768 64.420000 -10.520000 6.960000
769 66.510000 -10.860000 7.180000
770 68.600000 -11.200000 7.400000
771 68.240000 -11.120000 7.340000
772 67.880000 -11.040000 7.280000
773 67.520000 -10.960000 7.220000
774 67.160000 -10.880000 7.160000
775 66.800000 -10.800000 7.100000
776 66.440000 -10.720000 7.040000
777 66.080000 -10.640000 6.980000
778 65.720000 -10.560000 6.920000
779 65.360000 -10.480000 6.860000
780 65.000000 -10.400000 6.800000
781 65.100000 -10.420000 6.820000
782 65.200000 -10.440000 6.840000
783 65.300000 -10.460000 6.860000
784 65.400000 -10.480000 6.880000
785 65.500000 -10.500000 6.900000
786 65.600000 -10.520000 6.920000
787 65.700000 -10.540000 6.940000
788 65.800000 -10.560000 6.960000
789 65.900000 -10.580000 6.980000
790 66.000000 -10.600000 7.000000
791 65.500000 -10.510000 6.940000
792 65.000000 -10.420000 6.880000
793 64.500000 -10.330000 6.820000
794 64.000000 -10.240000 6.760000
795 63.500000 -10.150000 6.700000
796 63.000000 -10.060000 6.640000
797 62.500000 -9.970000 6.580000
798 62.000000 -9.880000 6.520000
799 61.500000 -9.790000 6.460000
800 61.000000 -9.700000 6.400000
801 60.230000 -9.560000 6.310000
802 59.460000 -9.420000 6.220000
803 58.690000 -9.280000 6.130000
804 57.920000 -9.140000 6.040000
805 57.150000 -9.000000 5.950000
806 56.380000 -8.860000 5.860000
807 55.610000 -8.720000 5.770000
808 54.840000 -8.580000 5.680000
809 54.070000 -8.440000 5.590000
810 53.300000 -8.300000 5.500000
811 53.860000 -8.400000 5.560000
812 54.420000 -8.500000 5.620000
813 54.980000 -8.600000 5.680000
814 55.540000 -8.700000 5.740000
815 56.100000 -8.800000 5.800000
816 56.660000 -8.900000 5.860000
817 57.220000 -9.000000 5.920000
818 57.780000 -9.100000 5.980000
819 58.340000 -9.200000 6.040000
820 58.900000 -9.300000 6.100000
821 59.200000 -9.350000 6.140000
822 59.500000 -9.400000 6.180000
823 59.800000 -9.450000 6.220000
824 60.100000 -9.500000 6.260000
825 60.400000 -9.550000 6.300000
826 60.700000 -9.600000 6.340000
827 61.000000 -9.650000 6.380000
828 61.300000 -9.700000 6.420000
829 61.600000 -9.750000 6.460000
830 61.900000 -9.800000 6.500000
