#Name CIE_D55
#CCT 5503
#CRI 100
#Spectrum_Power_Distribution
300.0    0.020000
305.0    1.050000
310.0    2.070000
315.0    6.650000
320.0    11.220000
325.0    15.940000
330.0    20.650000
335.0    22.270000
340.0    23.880000
345.0    25.850000
350.0    27.820000
355.0    29.220000
360.0    30.620000
365.0    32.460000
370.0    34.310000
375.0    33.450000
380.0    32.580000
385.0    35.340000
390.0    38.090000
395.0    49.520000
400.0    60.950000
405.0    64.750000
410.0    68.550000
415.0    70.070000
420.0    71.580000
425.0    69.750000
430.0    67.910000
435.0    76.760000
440.0    85.610000
445.0    91.800000
450.0    97.990000
455.0    99.230000
460.0    100.460000
465.0    100.190000
470.0    99.910000
475.0    101.330000
480.0    102.740000
485.0    100.410000
490.0    98.080000
495.0    99.380000
500.0    100.680000
505.0    100.690000
510.0    100.700000
515.0    100.340000
520.0    99.990000
525.0    102.100000
530.0    104.210000
535.0    103.160000
540.0    102.100000
545.0    102.530000
550.0    102.970000
555.0    101.480000
560.0    100.000000
565.0    98.610000
570.0    97.220000
575.0    97.480000
580.0    97.750000
585.0    94.590000
590.0    91.430000
595.0    92.930000
600.0    94.420000
605.0    94.780000
610.0    95.140000
615.0    94.680000
620.0    94.220000
625.0    92.330000
630.0    90.450000
635.0    91.390000
640.0    92.330000
645.0    90.590000
650.0    88.850000
655.0    89.590000
660.0    90.320000
665.0    92.130000
670.0    93.950000
675.0    91.950000
680.0    89.960000
685.0    84.820000
690.0    79.680000
695.0    81.260000
700.0    82.840000
705.0    83.840000
710.0    84.840000
715.0    77.540000
720.0    70.240000
725.0    74.770000
730.0    79.300000
735.0    82.150000
740.0    84.990000
745.0    78.440000
750.0    71.880000
755.0    62.350000
760.0    52.790000
765.0    64.360000
770.0    75.930000
775.0    73.870000
780.0    71.820000
785.0    72.380000
790.0    72.940000
795.0    70.140000
800.0    67.350000
805.0    63.040000
810.0    58.730000
815.0    61.860000
820.0    64.990000
825.0    66.650000
830.0    68.310000
